wavelength_nm,qe
400,0.0
410,0.0
420,0.0
430,0.0
440,0.0
450,0.0
460,0.0
470,4.63
480,6.48
490,9.09
500,17.75
510,28.39
520,37.8
530,38.39
540,35.02
550,28.83
560,28.1
570,19.02
580,13.1
590,6.96
600,4.33
610,3.34
620,3.02
630,0.0
640,0.0
650,0.0
660,0.69
670,0.7
680,0.34
690,0.05
700,0.0
